File: Tables/Table-6 calibrated xrf data.csv
Splice Depth CCSF (m),Section_Label,Offset (cm),Al2O3,SiO2,K2O,TiO2,Fe2O3,CaO,MSE
0.06,U1474F_1H1,5.536,13.3376,42.5685,1.0143,0.800908,5.51071,31.9775,12.27
1.95,U1474F_1H2,45.258,12.786,46.0292,1.50984,0.887797,6.59673,27.3999,12.55
3.87,U1474D_1H3,72.153,13.2161,46.8729,1.58086,0.859446,6.91461,25.7656,12.76
5.77,U1474F_2H2,142.236,13.1985,46.7654,1.49154,0.841694,6.31145,26.6009,13.44
7.71,U1474F_2H4,35.619,12.793,46.456,1.26451,0.787282,5.21548,28.6932,15.92
9.61,U1474F_2H5,75.52,12.4327,47.2753,1.46043,0.784826,6.4432,26.8131,13.43
11.51,U1474D_3H1,95.254,12.6207,39.5276,0.84789,0.613215,3.82151,37.7785,14.52
13.41,U1474D_3H2,135.128,12.0064,40.7038,0.801267,0.606413,3.79957,37.292,13.85
15.33,U1474D_3H4,27.437,12.697,43.1409,1.0805,0.635863,4.45548,33.1997,14.09
17.23,U1474D_3H5,67.514,12.0619,42.167,0.943008,0.636755,4.13207,35.2687,13.4
19.54,U1474A_3H5,33.706,13.7541,47.8362,1.16023,0.61551,4.46207,27.3813,13.41
21.42,U1474D_4H1,86.761,12.84,43.8635,1.15774,0.743775,5.57508,31.0294,5.9
23.32,U1474D_4H2,127.386,12.1744,44.5074,1.27679,0.719646,5.21016,31.3211,14.53
25.24,U1474D_4H4,19.548,12.9526,45.6049,1.27415,0.695194,4.38529,30.2974,13.43
27.14,U1474F_4H4,13.479,12.185,48.1937,1.46309,0.730484,6.42217,26.2151,13.84
29.04,U1474F_4H5,53.167,13.9787,49.4392,1.77884,0.833632,6.39523,22.7839,13.46
30.95,U1474A_4H4,145.509,13.1691,49.9543,2.02534,0.834574,6.93429,22.2919,11.57
32.89,U1474A_4H6,39.669,14.0915,49.839,1.4285,0.693473,4.84986,24.3072,14.3
34.82,U1474F_5H2,45.488,12.7363,46.7291,1.17628,0.666812,4.59052,29.3104,14.37
36.72,U1474F_5H3,85.606,12.6793,49.262,1.71333,0.793426,6.45379,24.3076,16.64
38.64,U1474F_5H4,127.966,13.0336,46.1226,1.37486,0.673976,4.87572,29.1287,18.98
40.6,U1474F_5H6,23.635,12.6762,46.9299,1.36784,0.731945,5.50082,28.0027,19.12
42.59,U1474D_6H2,59.156,12.1018,45.3572,1.06265,0.6622,4.16749,31.8581,13.7
44.49,U1474D_6H3,99.441,13.3537,48.9433,1.58145,0.740251,4.6353,25.9555,13.21
46.39,U1474D_6H4,139.596,12.0606,49.3262,1.47549,0.728932,5.9602,25.6581,12.56
48.31,U1474D_6H6,31.168,13.4734,49.8214,1.68229,0.757125,5.83961,23.6356,12.92
50.22,U1474A_6H3,143.341,12.6745,47.0842,1.44577,0.745876,5.04093,28.2182,12.79
52.13,U1474D_7H2,55.626,12.9869,48.4229,1.74763,0.797845,6.39737,24.8568,13.18
54.03,U1474D_7H3,95.566,12.5658,46.4966,1.20625,0.696399,4.24058,30.0039,13.16
55.93,U1474D_7H4,135.164,13.5077,50.7225,2.30023,0.844122,6.17846,21.6565,13.42
57.86,U1474F_7H4,29.561,13.6596,49.0908,1.73475,0.759128,5.5784,24.3868,12.96
59.76,U1474F_7H5,69.367,12.9537,45.9513,1.27734,0.682293,4.39165,29.9531,13.83
61.66,U1474D_8H2,49.635,12.613,47.164,1.4419,0.688347,5.8732,27.429,13.65
63.57,U1474D_8H3,90.437,13.2913,46.0921,1.36669,0.694077,4.79682,28.9685,9.43
65.52,U1474D_8H4,135.725,12.6541,47.2917,1.25678,0.66735,4.2771,29.0624,12.94
67.44,U1474D_8H6,27.285,12.7745,48.8873,1.38338,0.712106,4.6512,26.801,13.22
69.34,U1474F_8H4,107.359,13.1831,50.0194,1.3945,0.711653,4.81667,25.0841,13.25
71.24,U1474F_8H5,147.371,12.7542,50.5084,1.70561,0.787027,5.62216,23.8321,13.28
73.23,U1474A_8H5,121.612,12.2968,48.0005,1.23066,0.671252,4.16182,28.8484,13.62
75.13,U1474F_9H1,105.768,11.569,47.133,1.12128,0.635558,3.95694,30.7936,15.95
77.03,U1474F_9H2,146.116,11.8268,46.4474,1.31843,0.735033,4.96024,29.9216,16.5
78.98,U1474F_9H4,41.318,11.9014,45.5693,1.033,0.633956,3.42715,32.6446,14.49
80.88,U1474F_9H5,81.363,12.7959,48.8141,1.40227,0.700731,4.20374,27.2927,15.07
82.79,U1474D_10H1,83.662,13.0922,50.3057,1.66511,0.783955,4.81577,24.5467,14.99
84.74,U1474D_10H2,128.229,13.0776,50.8719,1.8067,0.750063,4.66385,24.0394,16.66
86.69,U1474D_10H4,23.302,13.3549,49.5583,1.07427,0.603425,3.61831,27.0003,14.13
88.59,U1474D_10H5,63.302,12.7248,49.3552,1.3954,0.684812,4.4563,26.593,12.95
90.51,U1474D_10H6,105.262,12.2723,47.466,1.21518,0.662474,3.57238,30.0211,14.19
92.4,U1474F_10H5,138.281,12.7575,49.3954,1.29424,0.661119,3.62721,27.474,14.93
94.33,U1474D_11H2,39.772,13.1667,48.4527,1.4672,0.720989,4.71292,26.689,14.92
96.25,U1474D_11H3,82.193,12.7169,48.7994,1.47734,0.669556,4.44454,27.1016,15.64
98.14,U1474D_11H4,121.514,12.77,49.3413,1.54099,0.686692,4.53811,26.3323,10.61
100.06,U1474D_11H6,13.271,13.7271,52.435,2.03601,0.770113,4.97358,21.2676,15.06
102.0,U1474F_11H5,19.264,12.8819,50.6678,1.63387,0.73106,5.53413,23.7607,14.94
103.89,U1474F_11H6,57.762,12.692,50.7011,1.87535,0.797753,4.91044,24.2328,13.72
105.8,U1474D_12H2,97.616,13.0281,50.317,1.69432,0.747309,4.68291,24.7398,14.37
107.71,U1474F_12H2,36.948,12.0677,48.5536,1.17741,0.628616,3.46448,29.3177,15.79
109.64,U1474F_12H3,79.734,13.5278,50.0972,1.82066,0.722588,4.81073,24.2305,16.88
111.54,U1474F_12H4,119.723,13.7049,50.765,1.85557,0.740806,5.38685,22.7563,17.45
113.48,U1474E_2H1,123.309,14.347,49.8615,1.56546,0.660391,4.56863,24.2065,14.51
115.43,U1474E_2H3,19.167,13.9365,49.7863,1.50691,0.655431,4.49767,24.8267,16.06
117.36,U1474E_2H4,61.297,13.8551,48.8293,1.35404,0.650809,4.19376,26.3264,14.56
119.26,U1474E_2H5,101.618,13.8562,49.3331,1.67874,0.72677,5.30432,24.3103,14.92
121.2,U1474F_13H4,45.487,14.1726,50.6827,2.01251,0.75539,5.67324,21.913,12.54
123.12,U1474F_13H5,85.287,14.5662,51.0131,1.57834,0.693464,4.75784,22.6006,14.21
125.01,U1474F_13H6,123.271,13.7832,50.1566,1.922,0.787163,5.65495,22.9055,13.88
126.92,U1474D_14H2,97.351,13.5019,49.5229,1.88624,0.75831,5.46553,24.0746,13.64
128.85,U1474D_14H3,140.658,13.0626,48.9905,1.9526,0.773044,6.91641,23.5143,14.43
130.82,U1474D_14H5,37.485,15.2038,53.7984,2.08019,0.751518,6.00607,17.3696,13.44
132.74,U1474D_14H6,79.479,13.4522,48.6915,1.79213,0.757657,5.85129,24.6647,14.59
134.71,U1474A_14H4,49.305,13.4784,49.8465,1.51716,0.720912,4.52618,25.1203,15.84
136.61,U1474A_14H5,89.274,13.0112,49.25,1.50407,0.708405,4.25842,26.4773,15.37
138.53,U1474F_15H2,61.075,13.5379,47.1607,1.43142,0.687646,4.70882,27.6831,15.66
140.41,U1474F_15H3,99.522,13.0411,48.3908,1.67569,0.705674,4.45794,26.9383,14.98
142.34,U1474F_15H4,141.866,12.9645,45.3214,1.44616,0.669289,4.99756,29.8105,15.65
144.25,U1474F_15H6,33.617,13.2944,46.794,1.51099,0.683035,4.76565,28.1614,15.12
146.17,U1474A_15H6,93.812,13.7653,50.8981,1.40384,0.623386,3.81155,24.7073,16.86
148.12,U1474E_6H3,17.269,12.7959,46.97,1.43331,0.72193,4.64714,28.6412,17.21
150.0,U1474E_6H4,55.062,12.9062,47.2569,1.41779,0.686499,4.59004,28.352,16.15
151.9,U1474F_16H4,85.065,13.9586,47.7633,1.63838,0.754511,5.39619,25.6985,14.63
153.83,U1474F_16H5,127.467,14.1128,50.2478,1.89391,0.805016,5.74244,22.4074,14.56
155.72,U1474A_16H6,25.054,12.9674,48.8572,1.52745,0.717438,4.57783,26.5621,16.45
157.6,U1474E_7H3,37.064,13.6205,49.5088,1.77766,0.713801,4.82468,24.764,16.61
159.52,U1474E_7H4,79.069,12.9129,47.4115,1.45196,0.691482,4.85843,27.8833,17.25
161.4,U1474E_7H5,117.2,14.2242,50.0155,1.87687,0.756693,5.11501,23.2212,16.15
163.32,U1474F_17H5,97.2,13.898,48.1506,1.52241,0.709193,4.58603,26.3432,15.91
165.23,U1474E_8H2,27.25,12.6688,49.0472,1.37785,0.709508,4.28778,27.1183,17.92
167.13,U1474E_8H3,67.377,13.195,47.2515,1.40265,0.690671,4.50042,28.1692,17.45
169.03,U1474E_8H4,105.25,13.2211,46.2869,1.28738,0.693278,4.49817,29.2227,17.8
170.93,U1474E_8H5,143.25,12.4694,46.6112,1.40438,0.73626,4.81362,29.1747,15.53
172.86,U1474F_18H4,25.485,13.2378,47.3917,1.29848,0.682403,4.6652,27.9339,15.8
174.78,U1474F_18H5,67.283,13.0861,47.3972,1.25886,0.680194,4.74526,28.0418,15.84
176.71,U1474E_9H2,45.65,12.2723,45.1092,1.17914,0.649877,4.57114,31.4278,16.01
178.62,U1474E_9H3,86.45,12.8134,46.4219,1.21443,0.683725,4.73521,29.3408,14.81
180.54,U1474F_19H2,127.433,12.7139,47.5218,1.22528,0.683438,4.43612,28.6289,13.36
182.49,U1474F_19H4,19.616,12.5382,44.0299,1.03682,0.610235,4.0654,32.929,14.99
184.41,U1474F_19H5,60.33,13.1617,45.8469,1.06904,0.625264,4.08919,30.4173,13.94
186.31,U1474E_10F1,145.2,12.5236,47.5048,1.20051,0.694687,4.32865,28.9572,16.52
188.23,U1474F_20H1,69.85,13.1209,47.1109,1.24206,0.669074,4.62006,28.4464,18.62
190.13,U1474F_20H2,109.25,13.172,46.1002,1.21874,0.653659,4.53163,29.5333,17.35
192.07,U1474A_20H2,1.25,13.162,46.7472,1.22912,0.665427,4.8063,28.5994,16.11
193.99,U1474A_20H3,43.25,12.5286,46.0148,1.16954,0.637158,3.77415,31.0853,17.05
195.89,U1474A_20H4,83.4,11.9003,44.8248,0.909442,0.585675,4.0424,32.9469,20.26
197.8,U1474A_20H5,125.2,12.6539,47.5924,1.19738,0.647034,4.39768,28.7211,18.19
199.76,U1474F_21H2,11.25,12.9948,46.4996,1.2582,0.658132,4.76609,29.0326,15.17
201.66,U1474F_21H3,49.25,12.6162,45.7284,1.15441,0.638895,4.21648,30.855,15.05
203.56,U1474F_21H4,87.25,13.867,48.5861,1.57255,0.708665,5.27559,25.1995,13.83
205.47,U1474A_21H2,57.172,13.812,48.1923,1.1404,0.616984,4.2457,27.202,17.67
207.38,U1474A_21H3,99.36,14.5799,49.2447,1.37289,0.638536,4.61985,24.7536,15.22
209.3,U1474E_14F2,1.166,14.1543,47.6902,1.18819,0.613498,4.46896,27.0943,13.12
211.2,U1474E_14F3,41.15,14.9803,50.2724,1.38725,0.671964,4.95246,22.9451,13.24
213.07,U1474F_23F1,81.736,13.9336,47.9843,1.10982,0.623901,4.50401,27.0538,16.76
214.99,U1474F_23F2,123.37,13.1113,45.0395,1.13356,0.614108,4.33511,30.9759,17.24
216.94,U1474A_22H2,104.25,13.3549,50.2615,1.58677,0.753224,5.13697,24.1161,13.98
218.88,U1474E_16F2,43.25,13.2624,46.429,1.22615,0.633535,4.92306,28.7352,13.48
220.8,U1474E_16F3,85.25,13.0771,45.3205,1.1196,0.63195,4.68624,30.3741,14.25
226.42,U1474F_26F2,121.65,12.6376,44.7439,1.11601,0.63627,4.42656,31.6491,13.95
228.95,U1474E_18F2,63.25,12.6925,43.9872,0.99547,0.589541,4.13251,32.8122,15.1
230.85,U1474F_27F2,81.25,12.6567,45.3587,0.9413,0.58206,3.85426,31.8165,17.56
232.75,U1474E_19F1,135.45,13.2564,45.8944,1.11919,0.649596,4.71199,29.5779,15.34
234.66,U1474F_28F2,5.45,14.1974,50.1575,1.69467,0.749933,5.77627,22.6337,13.88
240.85,U1474F_29F1,61.095,13.8824,48.7592,1.2144,0.619382,4.40897,26.3251,15.02
242.79,U1474F_29F3,39.466,14.2019,51.9971,1.38295,0.669281,4.58661,22.3717,14.47
244.69,U1474A_25H3,15.51,12.5712,46.4251,1.17224,0.654748,4.58939,29.7968,17.15
246.6,U1474F_30F1,75.25,12.6991,47.334,1.15578,0.648517,4.65881,28.7132,17.42
248.48,U1474F_30F2,113.25,13.6467,49.2321,1.41095,0.701544,5.41575,24.8024,14.14
250.37,U1474F_30F4,51.25,12.9878,48.4706,1.37034,0.714027,4.782,26.8847,14.57