File: Tables/xrf_calibrated.csv
Depth CCSF (m),Al2O3,SiO2,K2O,TiO2,Fe2O3,CaO,Section
0.06,13.9943,42.5612,1.01095,0.782434,5.30039,31.5601,U1474F_1H1
1.65,13.6591,45.9373,1.44941,0.855899,5.84968,27.4581,U1474F_1H2
3.27,10.9515,58.7912,1.68076,0.770426,5.71399,17.3016,U1474D_1H3
4.85,12.9358,47.3636,1.32603,0.814178,5.00868,27.7613,U1474D_1H4
6.45,12.6336,44.2121,1.27141,0.831773,5.29377,30.9668,U1474F_2H3
8.05,13.2717,46.027,1.19886,0.735186,4.59705,29.3796,U1474F_2H4
9.65,13.6021,46.663,1.35746,0.756476,5.85407,26.9764,U1474F_2H5
11.25,12.909,41.417,0.908308,0.616973,5.79479,33.5634,U1474F_2H6
12.85,13.9348,46.3072,1.54375,0.817843,6.22249,26.3834,U1474D_3H2
14.45,12.3251,43.1392,1.09028,0.684308,5.07632,32.8942,U1474D_3H3
16.03,12.9308,42.0454,0.988681,0.628989,4.06982,34.5457,U1474D_3H4
18.02,12.1202,40.9587,0.862776,0.596629,3.47693,37.1943,U1474A_3H4
19.62,13.8443,46.578,1.04,0.606368,3.97552,29.1653,U1474A_3H5
21.38,14.5069,42.5298,1.11447,0.688908,4.97498,31.3944,U1474D_4H1
23.08,12.5559,43.0343,1.21249,0.728586,5.70133,31.9769,U1474D_4H2
24.68,13.7636,44.9399,1.26655,0.741079,5.3225,29.1759,U1474D_4H3
26.28,12.7304,45.4223,1.04454,0.669095,3.99053,31.3526,U1474F_4H3
27.88,12.3365,46.7847,1.17105,0.717349,4.68503,29.5148,U1474F_4H4
29.48,12.9895,47.7425,1.30817,0.732557,5.05169,27.3851,U1474F_4H5
31.11,13.7469,49.0664,1.64435,0.785786,5.24212,24.7239,U1474A_4H5
32.73,14.6236,48.7487,1.37473,0.68279,4.80765,24.972,U1474A_4H6
34.28,13.4169,44.4473,1.22563,0.730582,4.8022,30.5868,U1474F_5H1
35.9,12.2623,46.4412,1.13798,0.715805,4.32912,30.323,U1474F_5H3
37.5,12.9496,46.6925,1.12009,0.693351,4.20478,29.5491,U1474F_5H4
39.08,12.8793,48.2602,1.36861,0.728658,4.98633,26.9864,U1474F_5H5
40.68,12.5252,46.0654,1.29621,0.73433,5.06678,29.5216,U1474F_5H6
42.33,12.0895,43.8985,1.04015,0.660473,3.81316,33.7077,U1474D_6H2
43.93,13.3993,47.008,1.30682,0.732272,5.20707,27.5561,U1474D_6H3
45.53,12.8351,45.6282,1.11432,0.691915,4.28943,30.6505,U1474D_6H4
47.14,12.8345,47.4248,1.28889,0.739059,4.86104,28.0612,U1474D_6H5
48.73,13.3267,46.5404,1.22377,0.708348,5.7191,27.6911,U1474D_6H6
50.37,12.9456,46.2811,1.08467,0.67011,3.84707,30.3809,U1474A_6H4
51.97,14.9047,51.212,2.1504,0.836933,6.39025,19.7151,U1474A_6H5
53.57,12.3608,46.4218,1.26619,0.734363,4.90577,29.5206,U1474D_7H3
55.17,13.2388,49.0859,1.48967,0.772369,5.11761,25.5052,U1474D_7H4
56.77,14.5725,47.9431,1.61912,0.756278,6.91315,23.4054,U1474D_7H5
58.36,12.4143,44.2448,1.03044,0.64079,3.8398,33.0393,U1474F_7H4
59.96,12.7698,46.1139,1.56913,0.778695,5.57505,28.4028,U1474F_7H5
61.56,12.8668,48.2227,1.22047,0.689576,4.38532,27.8246,U1474F_7H6
63.16,12.8761,46.2593,1.24584,0.684644,4.52235,29.6212,U1474D_8H3
64.76,14.0045,49.6407,1.95093,0.76609,6.14852,22.6987,U1474D_8H4
66.36,12.5118,47.7674,1.35157,0.697086,5.54597,27.3356,U1474D_8H5
67.95,12.5896,49.0055,1.38404,0.738258,4.70154,26.7905,U1474F_8H3
69.55,14.0604,49.6249,1.62895,0.749803,5.00037,24.145,U1474F_8H4
71.15,13.6463,51.688,1.70632,0.791933,5.85851,21.5184,U1474F_8H5
72.8,13.6589,47.3827,1.33097,0.694498,4.92854,27.2139,U1474A_8H5
74.39,14.8317,50.556,2.03156,0.814087,6.87158,20.1045,U1474A_8H6
75.99,12.9873,47.8816,1.24759,0.680799,4.13284,28.2793,U1474F_9H2
77.59,12.8845,48.6616,1.44256,0.725611,4.98319,26.5121,U1474F_9H3
79.22,12.1473,49.136,1.35257,0.720819,4.30386,27.549,U1474F_9H4
80.8,12.4382,49.2318,1.29912,0.683327,3.97693,27.5802,U1474F_9H5
82.4,12.4109,48.7338,1.26288,0.693671,3.57308,28.5351,U1474F_9H6
84.15,12.5048,47.7038,1.39388,0.677622,3.83968,29.0897,U1474D_10H2
85.75,12.7282,47.7632,1.22127,0.70751,3.59782,29.1915,U1474D_10H3
87.37,13.5696,51.9527,1.35746,0.657194,3.9112,23.7614,U1474D_10H4
88.95,12.7005,49.4089,1.73509,0.741647,5.774,24.8494,U1474D_10H5
90.52,12.3972,47.9998,1.28629,0.705631,3.93732,28.8832,U1474D_10H6
92.1,13.644,49.0138,1.55008,0.711382,5.6071,24.6831,U1474F_10H5
93.7,12.9143,48.2475,1.54755,0.733161,5.06181,26.7051,U1474D_11H1
95.31,13.1785,47.7873,1.53458,0.732774,5.18966,26.7867,U1474D_11H2
96.88,13.5504,50.404,1.76357,0.764783,5.00224,23.7245,U1474D_11H3
98.52,13.9311,51.0374,1.86938,0.769071,5.14829,22.4542,U1474D_11H5
100.1,13.9813,52.5695,2.06871,0.769788,4.8307,20.9895,U1474D_11H6
101.7,12.9361,49.5757,1.51791,0.730981,4.75502,25.6938,U1474F_11H4
103.28,12.9282,51.7909,1.85601,0.741902,5.34138,22.551,U1474F_11H5
104.92,12.7212,48.6483,1.52287,0.726534,4.33359,27.2571,U1474D_12H2
106.52,12.9655,49.7455,1.67961,0.75759,5.14684,24.9144,U1474D_12H3
108.07,13.4833,51.0782,1.8582,0.760278,5.39562,22.6338,U1474F_12H2
109.69,13.5214,50.1606,1.75635,0.714505,4.72303,24.3335,U1474F_12H3
111.29,13.5261,50.5733,1.82383,0.749009,5.24048,23.2967,U1474F_12H4
112.87,13.3199,49.1842,1.62959,0.701067,4.63427,25.7404,U1474F_12H5
114.47,13.618,49.8916,1.39662,0.655249,4.07754,25.5705,U1474E_2H2
116.07,13.3602,49.5109,1.47302,0.660832,4.63662,25.5679,U1474E_2H3
117.66,13.7521,48.9421,1.36293,0.643109,4.45,26.0592,U1474E_2H4
119.32,13.7426,49.5823,1.67641,0.738967,5.1285,24.3406,U1474E_2H5
120.94,12.5512,48.5117,1.62258,0.706329,4.82069,26.9969,U1474F_13H4
122.52,14.4907,51.9209,1.79011,0.725955,5.2996,20.9822,U1474F_13H5
124.09,12.4482,48.8879,1.77845,0.802848,6.09462,25.1974,U1474F_13H6
125.65,13.9004,50.6441,2.11414,0.80941,6.01758,21.7238,U1474D_14H1
127.26,13.6525,51.4383,2.11049,0.789554,5.76213,21.4565,U1474D_14H2
128.96,13.5446,50.0688,1.81562,0.779418,5.49016,23.5109,U1474D_14H4
130.58,14.9946,53.9735,2.01477,0.73014,5.02737,18.469,U1474D_14H5
132.18,13.3751,49.9278,1.79316,0.74702,5.2403,24.1261,U1474D_14H6
133.78,12.7379,49.7614,1.64331,0.761566,5.53785,24.7674,U1474A_14H3
135.39,12.3961,50.4946,1.61745,0.729046,5.12578,24.8465,U1474A_14H4
136.98,12.7614,47.9157,1.50554,0.736488,4.91171,27.3787,U1474A_14H5
138.59,12.6433,48.1658,1.49701,0.701514,4.94138,27.2605,U1474F_15H2
140.17,12.9878,47.8723,1.67704,0.728372,4.86506,27.0789,U1474F_15H3
141.79,12.0838,47.4341,1.51516,0.704826,4.98373,28.4878,U1474F_15H4
143.39,13.107,48.2097,1.62196,0.748553,5.02521,26.497,U1474F_15H5
145.0,12.8052,46.7294,1.29479,0.656825,4.35682,29.3664,U1474A_15H5
146.62,13.3028,48.4198,1.63936,0.722717,5.14279,25.982,U1474E_6H2
148.22,12.8363,48.4421,1.55818,0.741687,5.9805,25.6507,U1474E_6H3
149.8,13.2839,48.1293,1.54137,0.696691,4.79333,26.7649,U1474E_6H4
151.38,13.8576,49.0805,1.81403,0.779176,5.61815,24.06,U1474F_16H4
152.98,13.7478,50.6865,1.99345,0.78343,5.90085,22.0974,U1474F_16H5
154.63,13.088,47.4636,1.41697,0.698171,4.70603,27.8367,U1474A_16H5
156.2,14.4421,50.4564,2.16675,0.808467,6.48842,20.8474,U1474E_7H2
157.76,13.9201,51.0388,1.97983,0.727637,4.82479,22.7183,U1474E_7H3
159.36,13.6577,47.8009,1.49017,0.700128,4.71993,26.8407,U1474E_7H4
160.94,12.6104,47.4646,1.37453,0.714688,5.02609,28.0191,U1474E_7H5
162.5,14.0512,49.1654,1.86078,0.746495,5.77184,23.6137,U1474E_7H6
164.1,13.1612,47.9695,1.41687,0.679129,4.72019,27.2625,U1474F_17H6
165.66,12.8627,45.9587,1.27465,0.689415,4.24018,30.1838,U1474E_8H2
167.25,13.4982,47.8579,1.44303,0.711597,4.59882,27.0999,U1474E_8H3
168.82,10.2438,62.2969,1.14524,0.684,3.92958,16.9099,U1474E_8H4
170.42,12.5538,46.9807,1.26213,0.670102,4.20327,29.5395,U1474E_8H5
172.01,13.5999,48.6855,1.46049,0.730658,5.24954,25.4834,U1474F_18H3
173.59,13.0209,48.1619,1.25347,0.67685,4.07557,28.0207,U1474F_18H4
175.2,13.0926,48.4159,1.39518,0.687683,4.55061,27.0675,U1474A_18H5
176.77,12.3086,44.7956,1.12884,0.643726,4.43721,31.8956,U1474E_9H2
178.37,12.8409,46.8324,1.32325,0.697806,4.85988,28.6552,U1474E_9H3
179.96,12.6463,45.6517,1.13742,0.655373,4.43716,30.6815,U1474E_9H4
181.56,11.632,45.7841,1.16374,0.628436,4.8232,31.178,U1474F_19H3
183.17,10.9105,53.3937,0.81888,0.575967,3.5722,25.9382,U1474F_19H4
184.77,13.4612,47.2241,1.25625,0.647005,4.28744,28.3335,U1474F_19H5
186.37,12.4986,46.8896,1.09951,0.638295,3.99631,30.0872,U1474E_10F2
187.93,13.2037,47.0169,1.28156,0.663837,4.38618,28.6573,U1474F_20H1
189.53,13.7822,46.9698,1.27949,0.657702,4.23465,28.2856,U1474F_20H2
191.13,12.7379,45.9803,1.26548,0.662788,5.00937,29.5537,U1474F_20H3
192.77,14.2943,49.1691,1.58922,0.725697,5.62112,23.81,U1474A_20H2
194.37,12.6571,46.7225,1.20531,0.654593,4.55512,29.4148,U1474A_20H3
195.94,12.3436,44.9388,0.962966,0.608501,3.99275,32.3629,U1474A_20H4
197.54,11.2787,44.9535,1.00646,0.579025,3.54992,33.8418,U1474A_20H5
199.19,13.0099,49.3491,1.40675,0.702922,4.83999,25.9008,U1474F_21H1
200.78,13.4464,46.2791,1.33995,0.670294,4.74523,28.7285,U1474F_21H2
202.38,13.4556,48.183,1.40502,0.700627,5.09057,26.3746,U1474F_21H3
203.98,14.334,50.7444,1.40384,0.677104,4.93009,23.12,U1474A_21H1
205.59,13.3075,48.3951,1.12694,0.629763,4.27585,27.4743,U1474A_21H2
207.2,14.6501,48.497,1.3289,0.650279,4.92922,25.154,U1474A_21H3
208.8,12.9877,46.0021,1.34408,0.70834,5.64149,28.5258,U1474E_14F1
210.4,14.4656,49.202,1.40505,0.654844,4.88594,24.5961,U1474E_14F2
212.02,14.0194,49.7778,1.17563,0.654052,4.51872,25.0639,U1474E_14F4
213.58,14.8708,48.6864,1.34764,0.655333,4.71642,24.9329,U1474F_23F1
215.18,13.4062,45.8692,1.24251,0.648562,4.77497,29.268,U1474F_23F2
216.93,13.3101,49.7845,1.50981,0.731859,5.02488,24.8483,U1474A_22H2
218.56,13.1127,45.7483,1.11445,0.626344,4.57166,30.036,U1474E_16F2
220.16,13.9095,45.3787,1.14644,0.630928,4.74009,29.4038,U1474E_16F3
225.45,13.2691,44.7666,1.12885,0.61777,4.13075,31.2963,U1474F_26F2
227.71,12.7239,43.6943,1.04674,0.627653,4.1099,33.007,U1474E_18F1
229.31,13.8043,46.9675,1.29633,0.660204,4.80823,27.6729,U1474E_18F2
230.9,12.0801,45.4021,0.954236,0.585307,4.03452,32.1532,U1474F_27F2
232.5,12.6279,45.4572,1.10319,0.63943,4.44259,30.9391,U1474E_19F1
234.09,13.4822,50.8874,1.78267,0.776327,5.94922,22.3317,U1474F_28F1
237.06,13.0926,46.2977,1.11142,0.623338,4.38409,29.7004,U1474F_28F4
241.68,13.6663,48.8027,1.11029,0.621952,4.21557,26.7927,U1474F_29F2
243.25,14.4938,50.7577,1.36162,0.672621,5.18087,22.7428,U1474F_29F3
244.85,11.8304,46.2261,1.05987,0.645426,4.18753,31.2601,U1474A_25H3
246.45,12.1714,45.7412,1.03387,0.616167,4.13093,31.516,U1474A_25H4
248.02,13.3535,50.2138,1.54375,0.722458,5.516,23.8599,U1474F_30F2
249.64,12.6637,48.7094,1.38547,0.700484,4.99888,26.7515,U1474F_30F3
250.37,13.1081,48.2403,1.36872,0.715816,4.72518,27.0514,U1474F_30F4